wavelength,reflectance
0.35,0.12
0.40,0.15
0.45,0.18
0.50,0.22
0.55,0.25
0.60,0.23
0.65,0.20
0.70,0.18
0.75,0.16
0.80,0.15
0.85,0.14
0.90,0.13
0.95,0.12
1.00,0.11
1.05,0.10
1.10,0.09
1.15,0.08
1.20,0.07
1.25,0.06
1.30,0.05
1.35,0.04
1.40,0.03
1.45,0.02
1.50,0.01
1.55,0.00
1.60,0.00
1.65,0.00
1.70,0.00
1.75,0.00
1.80,0.00
1.85,0.00
1.90,0.00
1.95,0.00
2.00,0.00
2.05,0.00
2.10,0.00
2.15,0.00
2.20,0.00
2.25,0.00
2.30,0.00
2.35,0.00
2.40,0.00
2.45,0.00
2.50,0.00
